# Energy[GeV] Prob_e Prob_mu Prob_tau (a [um] = 0.2, m0 [eV] = 0, ca1 = 4.24, ca2 = 1.19, ca3 = -0.037, medium_param = -1)
1  0.094192 0.281814 0.60832
1.01159  0.119839 0.654904 0.21096
1.02332  0.111169 0.871866 0.00300784
1.03518  0.0722162 0.776583 0.135722
1.04718  0.0326041 0.451344 0.498171
1.05931  0.0212782 0.122419 0.838174
1.07159  0.0431575 0.00204148 0.943986
1.08401  0.0823403 0.169541 0.732816
1.09658  0.110555 0.523544 0.365494
1.10929  0.104959 0.828191 0.0651481
1.12215  0.0702888 0.896482 0.0190526
1.13515  0.0369762 0.712949 0.24953
1.14831  0.0139794 0.367863 0.61565
1.16162  0.0160348 0.0810352 0.891376
1.17509  0.0417747 0.00662303 0.942802
1.18871  0.0782123 0.179851 0.728882
1.20249  0.101296 0.493904 0.388781
1.21642  0.103504 0.792945 0.0988358
1.23052  0.0783493 0.904145 0.00145492
1.24479  0.0438318 0.794029 0.140732
1.25922  0.0175331 0.524307 0.44486
1.27381  0.0121744 0.215539 0.767773
1.28858  0.0259881 0.0240879 0.940262
1.30351  0.0532807 0.0303418 0.905024
1.31862  0.0820627 0.233231 0.670384
1.33391  0.0979538 0.53304 0.356997
1.34937  0.0947279 0.796093 0.10237
1.36501  0.0739815 0.915204 5.79605e-05
1.38083  0.0472579 0.844479 0.099583
1.39684  0.0228381 0.616193 0.353214
1.41303  0.010918 0.331859 0.642553
1.4294  0.0150765 0.0987149 0.875029
1.44597  0.0336682 0.000511851 0.948194
1.46273  0.0570206 0.0719859 0.850619
1.47969  0.0772702 0.284925 0.623068
1.49684  0.0852845 0.560372 0.340585
1.51419  0.0808576 0.796683 0.111452
1.53174  0.0679608 0.919264 0.00259462
1.5495  0.0473898 0.888436 0.054724
1.56746  0.0264385 0.71572 0.238644
1.58562  0.0125095 0.47593 0.494748
1.604  0.00829048 0.224223 0.757046
1.6226  0.0152754 0.0517678 0.91496
1.6414  0.0289315 0.00131024 0.963512
1.66043  0.0439545 0.085069 0.853303
1.67967  0.053702 0.276962 0.651731
1.69914  0.0633674 0.522005 0.411172
1.71884  0.0654858 0.748168 0.176759
1.73876  0.0560662 0.894367 0.0335507
1.75892  0.0404824 0.943038 0.0044256
1.7793  0.0235372 0.875027 0.0939883
1.79993  0.0108897 0.705003 0.276397
1.82079  0.0040856 0.477811 0.51229
1.8419  0.00464488 0.251678 0.727503
1.86325  0.0119757 0.079749 0.89381
1.88484  0.022214 0.00349739 0.957998
1.90669  0.0378783 0.0294879 0.922258
1.92879  0.0492698 0.144939 0.785526
1.95115  0.0567665 0.33056 0.595112
1.97376  0.0581813 0.551012 0.375924
1.99664  0.0512155 0.747747 0.187182
2.01979  0.0453637 0.895869 0.0501209
2.0432  0.0332395 0.944929 0.000193804
2.06688  0.0223751 0.931198 0.0385904
2.09084  0.0121186 0.822503 0.159564
2.11507  0.00464902 0.651393 0.327817
2.13959  0.00289679 0.4534 0.541841
2.16439  0.00588144 0.260651 0.723579
2.18948  0.0130136 0.111713 0.864593
2.21486  0.0233129 0.0195008 0.942722
2.24053  0.0335292 0.00283306 0.955724
2.2665  0.0470096 0.0604054 0.873964
2.29277  0.0562491 0.182367 0.751716
2.31935  0.06085 0.342635 0.581476
2.34623  0.0614465 0.522918 0.39862
2.37342  0.0568445 0.696946 0.231768
2.40093  0.0521437 0.836625 0.0987866
2.42876  0.0425418 0.928704 0.0209571
2.45692  0.0320648 0.9534 0.00123997
2.48539  0.0213916 0.916055 0.0458584
2.5142  0.0135478 0.831302 0.14361
2.54335  0.00628521 0.697832 0.281012
2.57283  0.00263379 0.54176 0.447009
2.60265  0.00214797 0.377653 0.610576
2.63282  0.00499177 0.223902 0.758374
2.66333  0.0101735 0.103815 0.875675
2.6942  0.018158 0.0270927 0.950531
2.72543  0.0264836 0.000123899 0.961705
2.75702  0.034731 0.0219853 0.935952
2.78898  0.0414783 0.0904655 0.858769
2.82131  0.046979 0.200123 0.745828
2.85401  0.0515687 0.335004 0.595922
2.88709  0.0545323 0.481427 0.453917
2.92056  0.0541788 0.622811 0.308579
2.95441  0.0503545 0.749706 0.181115
2.98865  0.0443604 0.861749 0.0855921
3.02329  0.0371582 0.923635 0.0241755
3.05834  0.0317776 0.956078 0.000110602
3.09379  0.0250456 0.947002 0.0180519
3.12965  0.0186533 0.897627 0.0749102
3.16592  0.0123427 0.818998 0.162807
3.20262  0.00710244 0.701377 0.27649
3.23974  0.00361624 0.582064 0.401604
3.27729  0.00193809 0.448892 0.5359
3.31528  0.00156392 0.325065 0.664425
3.35371  0.00250069 0.209513 0.779329
3.39258  0.00505775 0.115332 0.875152
3.43191  0.00865626 0.0478275 0.933607
3.47169  0.0120931 0.00955587 0.968996
3.51193  0.0169401 0.00131052 0.967234
3.55263  0.0205745 0.0255957 0.941402
3.59381  0.0227696 0.0764145 0.888267
3.63547  0.0279569 0.150564 0.801926
3.67761  0.0303473 0.247311 0.712239
3.72024  0.0323855 0.357787 0.600219
3.76336  0.031561 0.467352 0.492345
3.80698  0.0313786 0.585985 0.373929
3.85111  0.0309584 0.684815 0.267258
3.89575  0.0302582 0.781501 0.17382
3.9409  0.0282746 0.865495 0.0963564
3.98658  0.0242476 0.924882 0.0421552
4.03279  0.0213819 0.956328 0.00942092
4.07953  0.0178575 0.972449 0.000150872
4.12682  0.0150461 0.967705 0.0144213
4.17466  0.0114228 0.932655 0.0489171
4.22304  0.00837357 0.872187 0.104735
4.27199  0.00608124 0.817656 0.174398
4.32151  0.00406268 0.724271 0.258168
4.3716  0.00212027 0.639185 0.346505
4.42227  0.00133785 0.537315 0.44596
4.47353  0.000931522 0.43986 0.540647
4.52539  0.0011272 0.346017 0.643679
4.57784  0.00186613 0.259653 0.728684
4.6309  0.00267148 0.18665 0.797597
4.68458  0.00385303 0.115544 0.872812
4.73888  0.00498227 0.0640188 0.917417
4.79381  0.0069466 0.0263481 0.954443
4.84937  0.00903492 0.00504367 0.977918
4.90558  0.0108637 0.000330013 0.984387
4.96244  0.0121393 0.0106477 0.961933
5.01997  0.0136034 0.0387957 0.931672
5.07815  0.0147243 0.0786162 0.895788
5.13701  0.0156898 0.127632 0.834558
5.19656  0.0178932 0.191959 0.776307
5.25679  0.0176741 0.263299 0.71484
5.31772  0.0171039 0.338653 0.636602
5.37936  0.0164788 0.41671 0.560441
5.44171  0.0172301 0.496089 0.474604
5.50479  0.0173128 0.581217 0.391228
5.5686  0.0162508 0.651117 0.319886
5.63314  0.0145456 0.725608 0.2479
5.69844  0.0132177 0.785657 0.185297
5.76449  0.0118077 0.840988 0.134087
5.83131  0.0119855 0.893238 0.0834065
5.8989  0.0106963 0.932475 0.0463084
5.96727  0.00818917 0.952754 0.0211268
6.03644  0.00693272 0.981282 0.00488331
6.10641  0.00583628 0.985898 1.40188e-05
6.17719  0.00449395 0.970618 0.00509473
6.24879  0.00369879 0.967838 0.0186795
6.32122  0.00289568 0.94437 0.0457334
6.39449  0.00186929 0.907911 0.0787209
6.46861  0.00149162 0.870148 0.120211
6.54359  0.000854139 0.819008 0.163364
6.61943  0.000618922 0.777499 0.216505
6.69616  0.000333409 0.72542 0.268844
6.77378  0.000248539 0.658101 0.327275
6.85229  0.000570536 0.59849 0.393737
6.93172  0.0011075 0.530349 0.447562
7.01206  0.00139445 0.47255 0.521222
7.09334  0.00191321 0.406252 0.582056
7.17556  0.00240929 0.346032 0.636809
7.25873  0.00310785 0.293483 0.690123
7.34287  0.00424937 0.239047 0.738853
7.42798  0.00494816 0.189749 0.796072
7.51408  0.00608742 0.145777 0.834698
7.60118  0.00631567 0.112226 0.87009
7.68928  0.00779174 0.073822 0.902787
7.77841  0.00859638 0.0486597 0.935929
7.86857  0.00884201 0.0278173 0.953732
7.95978  0.00945862 0.0128243 0.975417
8.05204  0.0113325 0.00271579 0.970923
8.14537  0.011639 5.49735e-05 0.97401
8.23979  0.0122639 0.00248618 0.967835
8.33529  0.0132878 0.0106539 0.955151
8.43191  0.012765 0.0237536 0.947194
8.52964  0.0137187 0.0444567 0.928164
8.62851  0.0145433 0.0667461 0.903946
8.72853  0.0154981 0.0955761 0.883713
8.8297  0.0152593 0.126618 0.846594
8.93205  0.0157361 0.161828 0.811417
9.03558  0.0151021 0.19515 0.769346
9.14031  0.01534 0.239023 0.739663
9.24626  0.0149159 0.278412 0.693376
9.35343  0.0151548 0.319646 0.650584
9.46185  0.0154107 0.365422 0.60402
9.57152  0.0144254 0.411141 0.565899
9.68247  0.0142549 0.459978 0.523608
9.7947  0.0141476 0.50209 0.476102
9.90823  0.0134172 0.545161 0.435029
10.0231  0.012336 0.585309 0.395641
10.1393  0.0119385 0.624544 0.346345
10.2568  0.0119423 0.672785 0.305158
10.3757  0.0116945 0.71206 0.269514
10.4959  0.0107035 0.73873 0.23153
10.6176  0.0108145 0.782488 0.195831
10.7407  0.00944741 0.810224 0.167214
10.8652  0.00924851 0.846031 0.139412
10.9911  0.00865165 0.871831 0.109749
11.1185  0.00829175 0.892076 0.0868057
11.2474  0.0070505 0.908299 0.0687266
11.3777  0.006956 0.935753 0.0498631
11.5096  0.00628738 0.957104 0.0347955
11.643  0.00553191 0.962033 0.0219161
11.778  0.00515283 0.972246 0.0121987
11.9145  0.00476202 0.982063 0.00578742
12.0526  0.00410159 0.981599 0.00161973
12.1923  0.00417592 0.981592 5.9044e-06
12.3336  0.0031834 0.97642 0.00122675
12.4766  0.00353311 0.989656 0.00568155
12.6212  0.00285448 0.980318 0.0101838
12.7675  0.002282 0.969453 0.0193451
12.9155  0.0021241 0.9613 0.0295109
13.0652  0.00187573 0.949747 0.0428758
13.2166  0.00175699 0.93727 0.0562862
13.3698  0.00128628 0.914418 0.0746229
13.5248  0.00107324 0.892142 0.0901217
13.6816  0.000900232 0.878233 0.108555
13.8402  0.000842842 0.857063 0.133624
14.0006  0.000628428 0.832107 0.155761
14.1629  0.000596481 0.812419 0.179004
14.327  0.000352705 0.785263 0.200275
14.4931  0.000273062 0.759978 0.222858
14.6611  0.000248716 0.737327 0.248888
14.831  0.000216635 0.711612 0.276174
15.0029  0.000138835 0.681566 0.298684
15.1768  0.000117526 0.652833 0.331332
15.3528  0.000103867 0.636897 0.359547
15.5307  0.000168427 0.609297 0.384248
15.7107  0.00017093 0.580728 0.409816
15.8928  0.000168757 0.5529 0.442461
16.077  0.00017648 0.525941 0.46924
16.2634  0.000389159 0.493524 0.488267
16.4519  0.000487008 0.469669 0.520596
16.6426  0.00047933 0.442834 0.547555
16.8355  0.000612727 0.417506 0.57277
17.0307  0.000685016 0.389393 0.589181
17.2281  0.000631522 0.370109 0.627475
17.4277  0.000748664 0.345751 0.647245
17.6298  0.000844597 0.324789 0.664593
17.8341  0.000864902 0.302281 0.695061
18.0408  0.00105467 0.272546 0.717696
18.2499  0.00121594 0.252237 0.734447
18.4615  0.00154572 0.234775 0.743564
18.6755  0.00143712 0.217119 0.769938
18.8919  0.00167216 0.197727 0.787912
19.1109  0.0013843 0.180002 0.81742
19.3324  0.00194246 0.162416 0.822874
19.5565  0.00217869 0.143145 0.845554
19.7832  0.00206124 0.129085 0.865844
20.0125  0.00206633 0.115451 0.875117
20.2445  0.00200286 0.102624 0.883794
20.4791  0.00206578 0.0888386 0.900048
20.7165  0.00244 0.0762435 0.907439
20.9566  0.00287296 0.0644964 0.916216
21.1995  0.00266212 0.0570209 0.930096
21.4453  0.00245669 0.0480222 0.938656
21.6938  0.00266454 0.0388598 0.942861
21.9453  0.00290298 0.0308025 0.958024
22.1997  0.00285152 0.0257346 0.961934
22.457  0.00296392 0.0183286 0.964347
22.7173  0.0027019 0.0144577 0.981259
22.9806  0.00277512 0.0100957 0.97804
23.247  0.00319355 0.00677777 0.982376
23.5164  0.00288698 0.0043164 0.98124
23.789  0.00321995 0.00222936 0.985068
24.0648  0.00305496 0.000629725 0.980252
24.3437  0.00319488 5.93737e-05 0.992643
24.6259  0.00363435 0.000231355 0.984976
24.9113  0.00356567 0.000706193 0.974584
25.2  0.00302148 0.00180982 0.992478
25.4921  0.00370476 0.00445805 0.974542
25.7876  0.0030711 0.00611107 0.978716
26.0865  0.00342783 0.00882267 0.974747
26.3889  0.00318176 0.0123553 0.981881
26.6948  0.00330023 0.0167117 0.971124
27.0042  0.00355932 0.0221392 0.960119
27.3172  0.00361027 0.0266958 0.95093
27.6339  0.00317525 0.030894 0.959393
27.9542  0.00334557 0.0361467 0.948307
28.2782  0.00336987 0.0425253 0.945544
28.606  0.00325092 0.0491598 0.942889
28.9375  0.00338911 0.0567008 0.937331
29.2729  0.00370362 0.0643908 0.925287
29.6123  0.00371229 0.0700939 0.91135
29.9555  0.00315783 0.076308 0.90978
30.3027  0.00327876 0.0859085 0.898143
30.654  0.00340086 0.094925 0.88978
31.0093  0.00298299 0.100687 0.879849
31.3687  0.00340373 0.113061 0.868917
31.7323  0.0031565 0.120733 0.860587
32.1001  0.00335899 0.130835 0.853359
32.4722  0.00289646 0.137871 0.857208
32.8486  0.00324838 0.14731 0.835745
33.2293  0.00332646 0.158658 0.820049
33.6145  0.00321164 0.172291 0.822067
34.0041  0.00277843 0.175791 0.817065
34.3983  0.0028752 0.18342 0.795367
34.797  0.00304189 0.198077 0.782008
35.2003  0.00313868 0.207934 0.779823
35.6083  0.00295475 0.214079 0.763025
36.0211  0.00278294 0.227272 0.754369
36.4386  0.0025341 0.234686 0.755534
36.861  0.00277094 0.249746 0.738747
37.2882  0.0028688 0.260958 0.731144
37.7204  0.00299303 0.269043 0.710236
38.1576  0.00248996 0.278202 0.709005
38.5999  0.00245522 0.285362 0.698067
39.0474  0.00293033 0.302041 0.68121
39.5  0.00252973 0.30543 0.673842
39.9578  0.0027964 0.32413 0.664029
40.421  0.00236075 0.324954 0.651559
40.8895  0.00248406 0.342045 0.651562
41.3634  0.00226483 0.349882 0.635092
41.8429  0.0026615 0.359742 0.62386
42.3279  0.00222389 0.374149 0.621175
42.8185  0.00218283 0.374725 0.602401
43.3148  0.00254589 0.391741 0.59493
43.8169  0.00223105 0.404761 0.58875
44.3248  0.00193575 0.406989 0.580908
44.8386  0.0019598 0.415574 0.572412
45.3583  0.00197748 0.426262 0.555646
45.884  0.0019442 0.432361 0.544006
46.4159  0.00198959 0.442742 0.540989
46.9539  0.00215611 0.458978 0.531689
47.4981  0.00218146 0.467699 0.514142
48.0487  0.00180759 0.470349 0.506692
48.6056  0.00193352 0.480979 0.499916
49.169  0.00168027 0.488604 0.499585
49.739  0.00183788 0.503671 0.488973
50.3155  0.0017118 0.516433 0.479673
50.8987  0.0017313 0.520816 0.465757
51.4887  0.00174289 0.522046 0.452757
52.0855  0.00160908 0.530586 0.45056
52.6892  0.00170106 0.542879 0.444052
53.2999  0.00186133 0.551159 0.433591
53.9177  0.00149838 0.55688 0.429173
54.5427  0.00152937 0.569921 0.422184
55.1749  0.00149138 0.577255 0.414132
55.8145  0.00158721 0.591552 0.406106
56.4614  0.00151011 0.592254 0.393535
57.1159  0.00137964 0.605875 0.391053
57.7779  0.00143673 0.60587 0.376716
58.4476  0.00144016 0.622529 0.374356
59.1251  0.00117084 0.620457 0.367935
59.8104  0.00155277 0.633721 0.355153
60.5037  0.00129112 0.642085 0.355771
61.205  0.00113253 0.641891 0.34965
61.9144  0.00126722 0.649785 0.340268
62.6321  0.00117649 0.658172 0.336325
63.358  0.00103293 0.659965 0.332387
64.0924  0.00104055 0.660172 0.323296
64.8353  0.00110211 0.668962 0.313947
65.5869  0.00114629 0.680027 0.308496
66.3471  0.00115483 0.689548 0.299715
67.1161  0.00107542 0.694473 0.29391
67.8941  0.000854777 0.698991 0.290861
68.681  0.000943965 0.708204 0.287568
69.4771  0.000932798 0.709302 0.281377
70.2824  0.000829481 0.712954 0.277943
71.0971  0.000851812 0.713269 0.26825
71.9212  0.000811146 0.726109 0.262735
72.7548  0.000727851 0.731686 0.257968
73.5981  0.000895761 0.740567 0.252879
74.4512  0.000884128 0.744909 0.25046
75.3142  0.000798035 0.745498 0.24338
76.1872  0.00082625 0.750421 0.233983
77.0703  0.000884167 0.756117 0.229461
77.9636  0.000824568 0.756509 0.228082
78.8673  0.000706903 0.759001 0.223453
79.7814  0.000740498 0.771017 0.216203
80.7062  0.000850554 0.777625 0.211267
81.6417  0.000723816 0.77189 0.209079
82.588  0.000518884 0.777862 0.206337
83.5453  0.000680941 0.797078 0.201637
84.5137  0.000841438 0.795537 0.196415
85.4933  0.000592174 0.786854 0.192179
86.4842  0.000580063 0.803686 0.188076
87.4867  0.000745924 0.807875 0.184856
88.5007  0.000517346 0.801004 0.182327
89.5266  0.000656645 0.818775 0.174841
90.5643  0.00056676 0.811402 0.175343
91.614  0.00059233 0.819604 0.169194
92.6759  0.00051328 0.820673 0.16565
93.7502  0.000646626 0.831097 0.16384
94.8368  0.000426187 0.824246 0.159731
95.9361  0.000583913 0.837399 0.155402
97.0481  0.00051098 0.829583 0.153002
98.173  0.000545866 0.847676 0.148459
99.3109  0.000365451 0.839122 0.150684
100.462  0.000498721 0.841009 0.140774
101.627  0.000470803 0.852466 0.141705
102.804  0.000470084 0.842635 0.135044
103.996  0.000578847 0.860787 0.131991
105.202  0.000433709 0.855558 0.133542
106.421  0.000480931 0.861783 0.125965
107.654  0.000548289 0.864474 0.125215
108.902  0.00036379 0.864542 0.121916
110.165  0.000381703 0.862014 0.121948
111.442  0.000383688 0.867173 0.116213
112.733  0.000367746 0.877545 0.119165
114.04  0.000303792 0.874558 0.114098
115.362  0.000412429 0.875746 0.111481
116.699  0.000377488 0.874403 0.106327
118.052  0.000375339 0.888537 0.108638
119.42  0.000351335 0.886919 0.103366
120.804  0.000267626 0.883812 0.104617
122.204  0.000247728 0.884722 0.0993844
123.621  0.000386116 0.888036 0.096983
125.054  0.000297064 0.8946 0.0937855
126.503  0.000424443 0.898101 0.092763
127.97  0.000281317 0.903764 0.091559
129.453  0.000325881 0.897201 0.0904238
130.954  0.000239892 0.90822 0.0892267
132.471  0.000206523 0.897247 0.0868958
134.007  0.000263627 0.911989 0.0852641
135.56  0.000162731 0.901671 0.08387
137.131  0.000223342 0.903065 0.0821316
138.721  0.000229455 0.910773 0.0774526
140.329  0.000194342 0.909495 0.0799671
141.955  0.000160308 0.91224 0.0765363
143.601  0.000194224 0.906286 0.0737522
145.265  0.000238571 0.91632 0.0734103
146.949  0.000183726 0.918244 0.0700814
148.652  0.000174251 0.920546 0.0722617
150.376  0.000141558 0.925867 0.0694485
152.119  0.000133402 0.920392 0.0680349
153.882  0.000164716 0.925164 0.067292
155.665  0.000170686 0.929142 0.06322
157.47  0.00020184 0.923307 0.0627137
159.295  0.000220743 0.932777 0.0609065
161.141  0.00017618 0.922986 0.0579707
163.009  0.000166179 0.922837 0.0598692
164.899  0.000112383 0.932593 0.0580848
166.81  0.000100295 0.930444 0.057306
168.744  0.000166863 0.940491 0.0568993
170.699  0.000227039 0.944341 0.0524203
172.678  0.000247137 0.93342 0.0503176
174.68  0.000201285 0.933568 0.0511516
176.704  9.39194e-05 0.937202 0.0508321
178.753  9.6608e-05 0.939648 0.0506171
180.824  0.00021446 0.948005 0.0485509
182.92  0.0002171 0.943275 0.0447989
185.041  0.000108893 0.933331 0.0458988
187.186  0.000102179 0.945443 0.0476703
189.355  0.000185468 0.955114 0.0435478
191.55  0.000141134 0.941615 0.0414781
193.77  0.000116737 0.93975 0.0432163
196.016  0.000128279 0.950896 0.0423647
198.288  0.000111109 0.953676 0.0402193
200.587  0.000173241 0.947405 0.0384735
202.912  8.38401e-05 0.946862 0.0402648
205.264  0.000128117 0.959395 0.0376415
207.643  0.000144997 0.945159 0.0354559
210.05  8.80032e-05 0.94964 0.0379485
212.485  0.000116288 0.958334 0.0363701
214.947  0.000137512 0.958354 0.0335678
217.439  7.7326e-05 0.94378 0.0344589
219.959  0.000142053 0.961933 0.0343798
222.509  0.000109378 0.958977 0.0325992
225.088  8.26628e-05 0.958484 0.0313056
227.697  9.63085e-05 0.958016 0.0315655
230.336  0.000122675 0.95188 0.0309377
233.006  9.65764e-05 0.969289 0.0304231
235.707  8.74507e-05 0.960788 0.0284157
238.439  7.56825e-05 0.953484 0.0289472
241.203  0.000140782 0.968277 0.0284687
243.999  6.30609e-05 0.962028 0.0281057
246.827  6.5132e-05 0.963915 0.0266223
249.688  0.00013831 0.959555 0.0252449
252.582  5.89649e-05 0.966334 0.0276855
255.51  9.18239e-05 0.9675 0.0254784
258.471  5.14994e-05 0.959793 0.0244819
261.467  0.000124927 0.963158 0.022704
264.498  6.67667e-05 0.961887 0.0242673
267.564  8.43494e-05 0.973995 0.0238355
270.665  4.21184e-05 0.966568 0.0229057
273.803  6.50171e-05 0.966695 0.0214016
276.976  8.96824e-05 0.958185 0.0213133
280.187  0.000108987 0.970569 0.0215831
283.434  8.68086e-05 0.970448 0.020963
286.72  7.81319e-05 0.978773 0.0200635
290.043  4.0938e-05 0.966555 0.0196426
293.405  5.37765e-05 0.971147 0.020042
296.806  4.12305e-05 0.9652 0.0205551
300.246  6.05911e-05 0.975348 0.0193626
303.726  2.74434e-05 0.9698 0.0187186
307.247  6.0114e-05 0.970509 0.0171602
310.808  2.94173e-05 0.963531 0.0183069
314.411  8.21413e-05 0.966917 0.0172611
318.055  2.89167e-05 0.973168 0.0179697
321.742  6.73389e-05 0.97389 0.0161758
325.471  2.55263e-05 0.972653 0.016273
329.244  4.35941e-05 0.963408 0.0154906
333.06  4.20215e-05 0.973095 0.0158273
336.921  2.59662e-05 0.971875 0.0166238
340.826  5.98723e-05 0.979136 0.0149472
344.776  2.11538e-05 0.980506 0.0148022
348.773  5.23558e-05 0.9759 0.0134878
352.815  5.5657e-05 0.977596 0.0135589
356.905  5.12573e-05 0.971253 0.0136103
361.042  0.000107419 0.976332 0.0131292
365.227  3.66182e-05 0.974989 0.0137559
369.46  5.12488e-05 0.975701 0.0126187
373.743  2.90966e-05 0.981312 0.012507
378.075  1.02493e-05 0.974045 0.0124785
382.457  6.96026e-05 0.975236 0.011539
386.89  5.73994e-05 0.975608 0.0120931
391.375  5.39687e-05 0.973825 0.0118476
395.911  5.46306e-05 0.981502 0.011321
400.5  1.18159e-05 0.984872 0.011427
405.142  3.3026e-05 0.979528 0.0104099
409.838  7.38994e-05 0.976517 0.00956318
414.589  2.32735e-05 0.974857 0.0106959
419.394  3.4762e-05 0.972977 0.0108078
424.256  5.84106e-05 0.98819 0.0099495
429.173  3.51584e-05 0.98558 0.00994429
434.148  4.46053e-05 0.975176 0.00896681
439.18  3.05871e-05 0.982482 0.00890503
444.271  1.91664e-05 0.982539 0.00894877
449.42  5.67983e-05 0.972883 0.00866469
454.63  4.44538e-05 0.97667 0.00866546
459.899  2.65393e-05 0.986176 0.00933464
465.23  4.1248e-05 0.980846 0.00835821
470.622  4.62183e-05 0.983634 0.00797005
476.078  2.4598e-05 0.99052 0.00775253
481.596  2.33235e-05 0.980632 0.00742197
487.178  3.54566e-05 0.970242 0.00707643
492.825  3.85004e-05 0.981188 0.00739255
498.537  2.83669e-05 0.978591 0.00748437
504.316  2.53619e-05 0.97679 0.00802003
510.162  6.169e-05 0.988174 0.0067732
516.075  3.32385e-05 0.985391 0.00694359
522.057  3.58612e-06 0.987739 0.00715171
528.108  4.88195e-05 0.981276 0.00580331
534.229  2.58449e-05 0.982415 0.00590719
540.422  1.9538e-05 0.982786 0.00604292
546.686  2.73213e-05 0.969237 0.00636405
553.022  2.92267e-05 0.975366 0.00613309
559.433  6.95108e-05 0.981137 0.00581768
565.917  9.1948e-06 0.988385 0.00665098
572.477  2.57157e-05 0.984679 0.0059568
579.112  2.81207e-05 0.983116 0.00577457
585.825  4.80631e-05 0.991836 0.00482603
592.615  8.66349e-06 0.986861 0.00535838
599.484  8.13683e-06 0.986878 0.00506923
606.433  3.98804e-05 0.974605 0.00474788
613.462  3.83716e-05 0.983897 0.0047056
620.573  2.2746e-05 0.981737 0.00487479
627.766  9.33174e-06 0.985892 0.00536099
635.043  3.7607e-05 0.981323 0.00496013
642.403  3.66603e-05 0.989093 0.00442109
649.85  3.54435e-05 0.98762 0.00435366
657.382  1.60644e-05 0.995938 0.00437961
665.002  1.31467e-05 0.983942 0.00423566
672.71  2.49769e-05 0.986907 0.0037642
680.507  3.03302e-05 0.98361 0.00353377
688.395  3.49475e-05 0.987502 0.0033906
696.374  3.97592e-06 0.983824 0.00415039
704.446  2.18976e-05 0.984045 0.00367215
712.612  2.09054e-05 0.981959 0.00380016
720.872  6.30025e-05 0.986516 0.00320956
729.227  1.90722e-05 0.994984 0.00344533
737.68  1.15931e-05 0.988577 0.00333672
746.23  7.39108e-06 0.991918 0.00332364
754.88  2.18051e-05 0.985629 0.00301218
763.63  4.0758e-05 0.987928 0.00228177
772.481  8.49091e-06 0.986122 0.00267927
781.435  1.34857e-05 0.983626 0.00255313
790.493  1.89383e-06 0.983928 0.00278499
799.655  2.97453e-05 0.97345 0.00278309
808.924  4.72735e-05 0.97923 0.00243215
818.301  1.8909e-05 0.981861 0.00267829
827.786  3.24147e-05 0.981823 0.00253611
837.381  1.3353e-05 0.990123 0.00290462
847.087  7.38627e-06 0.986389 0.00302864
856.906  3.21452e-05 0.985924 0.00229658
866.838  2.09657e-05 0.98746 0.0021516
876.886  3.48323e-05 0.987554 0.0019198
887.05  3.52664e-05 0.996796 0.00164313
897.332  2.74849e-06 0.993991 0.00192111
907.733  8.533e-06 0.981718 0.00178354
918.254  1.36212e-05 0.979799 0.00154168
928.898  1.36895e-05 0.977286 0.0015413
939.665  4.05624e-05 0.97446 0.00125904
950.557  3.2475e-05 0.980584 0.00137113
961.575  4.84215e-06 0.980331 0.00183674
972.72  1.40675e-05 0.974859 0.00175886
983.995  1.38092e-05 0.977618 0.00172157
995.401  1.27611e-05 0.977288 0.00192946
1006.94  4.70358e-05 0.977338 0.0016686
1018.61  5.20268e-05 0.98777 0.00136391
1030.42  1.72576e-05 0.992446 0.00149288
1042.36  9.33655e-06 0.989567 0.00148424
1054.44  1.40324e-05 0.993247 0.00130293
1066.66  2.38522e-06 0.996437 0.00131072
1079.03  8.62729e-06 0.989845 0.00114106
1091.54  3.00926e-05 0.984634 0.000708059
1104.19  2.58719e-05 0.987448 0.000543747
1116.99  1.00211e-05 0.987863 0.000614283
1129.93  1.20738e-05 0.984477 0.000532615
1143.03  1.0569e-05 0.98339 0.000471624
1156.28  1.75796e-07 0.977585 0.000629617
1169.68  1.46977e-05 0.966665 0.000687373
1183.24  4.03211e-05 0.962173 0.000531116
1196.96  3.74313e-05 0.965468 0.000468754
1210.83  2.11006e-05 0.965672 0.000555534
1224.86  2.93341e-05 0.95972 0.000557138
1239.06  4.45455e-05 0.96043 0.000538311
1253.42  2.94735e-05 0.968553 0.000717455
1267.95  4.41721e-06 0.970764 0.00092458
1282.65  6.07548e-06 0.965095 0.000877234
1297.52  2.40247e-05 0.960312 0.000681642
1312.56  2.70069e-05 0.962648 0.000597391
1327.77  2.10858e-05 0.966363 0.000602251
1343.16  3.31985e-05 0.967155 0.000496159
1358.73  5.35808e-05 0.97053 0.000311329
1374.48  5.07312e-05 0.976896 0.000246386
1390.41  2.43925e-05 0.98112 0.000311565
1406.53  5.40936e-06 0.980091 0.000339717
1422.83  6.50124e-06 0.977438 0.000263453
1439.32  1.21938e-05 0.978386 0.000175914
1456.01  8.51369e-06 0.980419 0.000135414
1472.88  3.3638e-06 0.978856 0.000101259
1489.96  1.26888e-05 0.974074 4.14798e-05
1507.23  3.04232e-05 0.971407 1.4352e-05
1524.7  3.70579e-05 0.973651 6.22718e-05
1542.37  2.60345e-05 0.97696 0.000120786
1560.25  1.00717e-05 0.976628 0.00014921
1578.33  3.40175e-06 0.972316 0.000191394
1596.63  5.27497e-06 0.967627 0.000315144
1615.13  6.00216e-06 0.964424 0.00051673
1633.85  2.31895e-06 0.960065 0.000680699
1652.79  9.11055e-07 0.95205 0.000778263
1671.95  7.53599e-06 0.942234 0.000938838
1691.33  1.52234e-05 0.934518 0.00132476
1710.93  1.48549e-05 0.929977 0.00194328
1730.77  6.93994e-06 0.924919 0.00260591
1750.83  1.72782e-06 0.916016 0.00313211
1771.12  2.4666e-06 0.904388 0.00356857
1791.65  3.93543e-06 0.892017 0.0041321
1812.42  2.84711e-06 0.881066 0.00490454
1833.43  9.55102e-07 0.870188 0.0057667
1854.68  5.84001e-06 0.858122 0.00649286
1876.17  2.00343e-05 0.845145 0.00701824
1897.92  3.77331e-05 0.828583 0.00755877
1919.92  5.02164e-05 0.810972 0.00839261
1942.17  5.04489e-05 0.794763 0.00971109
1964.69  3.89798e-05 0.783535 0.0113259
1987.46  2.47316e-05 0.778286 0.0127505
2010.5  1.89109e-05 0.770735 0.0138881
2033.8  2.40861e-05 0.760156 0.0148424
2057.37  3.21376e-05 0.748057 0.015988
2081.22  3.25119e-05 0.739047 0.0174643
2105.35  2.31414e-05 0.736214 0.019013
2129.75  1.16982e-05 0.732291 0.0206501
2154.43  8.99192e-06 0.72549 0.0220387
2179.41  2.08442e-05 0.715575 0.0230306
2204.67  4.40324e-05 0.706828 0.0234926
2230.22  6.72533e-05 0.704602 0.0234017
2256.07  8.02722e-05 0.703945 0.0235679
2282.22  7.9571e-05 0.704447 0.0241608
2308.68  7.09572e-05 0.704569 0.0250731
2335.44  6.58486e-05 0.705497 0.0259196
2362.51  7.07053e-05 0.71076 0.0263667
2389.89  8.39365e-05 0.715221 0.0267003
2417.59  9.90564e-05 0.720071 0.0270682
2445.62  0.000107256 0.726151 0.0276584
2473.96  0.0001025 0.735025 0.0284742
2502.64  8.40793e-05 0.748402 0.0293567
2531.65  5.72258e-05 0.760527 0.0304183
2560.99  3.17421e-05 0.769912 0.031361
2590.68  1.68151e-05 0.776211 0.0319391
2620.71  1.6108e-05 0.781423 0.0319624
2651.08  2.23731e-05 0.788979 0.0314268
2681.81  2.91888e-05 0.796751 0.0309663
2712.9  3.26436e-05 0.804822 0.0307036
2744.34  3.19442e-05 0.812797 0.0306432
2776.15  2.84409e-05 0.82083 0.0306239
2808.33  2.32974e-05 0.829689 0.030414
2840.88  2.31413e-05 0.836694 0.0300686
2873.81  3.15267e-05 0.842024 0.0293878
2907.12  4.84215e-05 0.846548 0.02831
2940.82  6.97574e-05 0.852236 0.0269448
2974.91  8.76559e-05 0.861495 0.025578
3009.39  9.84392e-05 0.871131 0.0244102
3044.27  9.97818e-05 0.880608 0.0234914
3079.56  9.18735e-05 0.889399 0.0228064
3115.25  7.72559e-05 0.89768 0.0224014
3151.36  6.16588e-05 0.90622 0.0224718
3187.89  4.94915e-05 0.912819 0.0224771
3224.84  4.26481e-05 0.91809 0.0222706
3262.22  4.10208e-05 0.922918 0.0218198
3300.03  4.34829e-05 0.928224 0.0212684
3338.29  4.98942e-05 0.934414 0.0209028
3376.98  5.4963e-05 0.940611 0.0204935
3416.12  5.62443e-05 0.946577 0.0201242
3455.72  5.24148e-05 0.951899 0.0198645
3495.78  4.45061e-05 0.956134 0.0198124
3536.3  3.91178e-05 0.958761 0.0201251
3577.29  3.26361e-05 0.95964 0.0204019
3618.75  2.52745e-05 0.959109 0.0206071
3660.7  1.713e-05 0.957655 0.020744
3703.13  9.95426e-06 0.955771 0.0208814
3746.05  1.2802e-05 0.953883 0.0211093
3789.47  1.55634e-05 0.952303 0.0212974
3833.4  1.70166e-05 0.951013 0.0215615
3877.83  1.68999e-05 0.949665 0.0220095
3922.78  1.76745e-05 0.947774 0.0226788
3968.25  2.87941e-05 0.945574 0.0232812
4014.24  3.63731e-05 0.942238 0.0240083
4060.77  4.08152e-05 0.937283 0.0248759
4107.84  4.32703e-05 0.930347 0.0258693
4155.46  4.64472e-05 0.921574 0.0268797
4203.62  5.81553e-05 0.913814 0.0272627
4252.35  6.51999e-05 0.904962 0.0275627
4301.64  6.77277e-05 0.895035 0.0278336
4351.5  6.67381e-05 0.88401 0.0281276
4401.94  6.48527e-05 0.872261 0.0284373
4452.96  7.20656e-05 0.864468 0.02825
4504.57  7.67745e-05 0.856096 0.0281568
4556.79  8.04464e-05 0.846714 0.0282393
4609.6  8.5116e-05 0.835898 0.0285432
4663.03  9.38034e-05 0.823747 0.0290354
4717.08  0.00011681 0.816326 0.0291051
4771.76  0.000140275 0.807598 0.0293035
4827.07  0.000164112 0.797367 0.0296339
4883.02  0.000188315 0.785572 0.0300759
4939.62  0.000213475 0.772682 0.0305524
4996.88  0.000248905 0.767304 0.0302085
5054.8  0.000278452 0.761497 0.029798
5113.39  0.000300362 0.755259 0.0293521
5172.66  0.000313697 0.74858 0.0288944
5232.61  0.000318731 0.74168 0.0284182
5293.27  0.000328821 0.743563 0.0271947
5354.62  0.000330215 0.745428 0.0259418
5416.69  0.000323023 0.747002 0.0247284
5479.47  0.000308191 0.748028 0.0236026
5542.99  0.000287413 0.748335 0.0225852
5607.23  0.000274308 0.754717 0.0212732
5672.23  0.000259127 0.760348 0.0200506
5737.98  0.000243009 0.76503 0.0189539
5804.49  0.000227144 0.768662 0.0179966
5871.77  0.000212648 0.77124 0.0171696
5939.83  0.000208152 0.777414 0.0162395
6008.68  0.000205343 0.782828 0.0153781
6078.32  0.000203889 0.787435 0.0145979
6148.78  0.000203395 0.791312 0.0138959
6220.05  0.00020334 0.794575 0.0132569
6292.15  0.000212055 0.800991 0.012458
6365.08  0.000219778 0.807085 0.0116709
6438.86  0.000224885 0.812717 0.0109184
6513.49  0.00022615 0.817895 0.0102073
6588.99  0.000222554 0.822636 0.00953368
6665.36  0.000226864 0.83011 0.00869538
6742.62  0.000228411 0.837177 0.00787185
6820.78  0.000225276 0.843576 0.00709528
6899.84  0.00021644 0.849266 0.00637576
6979.81  0.000201211 0.854228 0.00571094
7060.72  0.000194462 0.860881 0.00497244
7142.56  0.000186705 0.866782 0.00427751
7225.35  0.000175982 0.87173 0.00365009
7309.1  0.000161527 0.87576 0.00309351
7393.82  0.000142856 0.878925 0.00260024
7479.52  0.000132724 0.882971 0.00212155
7566.22  0.000123543 0.886249 0.00169845
7653.92  0.000113327 0.888661 0.00134268
7742.64  0.000101388 0.890295 0.00105415
7832.38  8.73065e-05 0.891219 0.000825329
7923.17  8.07443e-05 0.892754 0.000646739
8015.01  7.52568e-05 0.893753 0.000523343
8107.91  6.89918e-05 0.89411 0.000463535
8201.89  6.14648e-05 0.893852 0.000470407
8296.96  5.24996e-05 0.892963 0.000541573
8393.13  5.0001e-05 0.892684 0.000645635
8490.42  4.78491e-05 0.891996 0.000804131
8588.83  4.44505e-05 0.890673 0.00103291
8688.38  3.97032e-05 0.888643 0.00133945
8789.09  3.3844e-05 0.885788 0.00172573
8890.97  3.405e-05 0.883776 0.00207966
8994.02  3.43036e-05 0.881345 0.0024806
9098.27  3.32168e-05 0.878089 0.0029619
9203.73  3.10347e-05 0.873876 0.00353294
9310.41  2.83404e-05 0.868547 0.00419684
9418.33  3.17214e-05 0.864718 0.00472667
9527.5  3.53263e-05 0.860576 0.00527839
9637.93  3.7808e-05 0.855457 0.0059122
9749.65  3.95476e-05 0.849224 0.00663744
9862.66  4.12538e-05 0.841732 0.00745674
9976.98  4.89963e-05 0.836795 0.00803287
10092.6  5.70683e-05 0.831921 0.00858962
10209.6  6.39643e-05 0.826102 0.00921935
10327.9  6.99878e-05 0.81922 0.00993125
10447.7  7.57604e-05 0.811157 0.0107278
10568.8  8.73309e-05 0.806718 0.0112013
10691.3  9.90489e-05 0.802888 0.011612
10815.2  0.000109045 0.798289 0.0120814
10940.5  0.00011743 0.792816 0.0126191
11067.4  0.000124617 0.786373 0.0132282
11195.6  0.000137268 0.78418 0.0134875
11325.4  0.000149834 0.783071 0.0136538
11456.7  0.000159918 0.781385 0.0138659
11589.5  0.000167424 0.779025 0.0141337
11723.8  0.000172519 0.775903 0.0144612
11859.7  0.000182755 0.776992 0.0144668
11997.2  0.000192942 0.779382 0.0143698
12136.2  0.000200101 0.781307 0.0143101
12276.9  0.000203971 0.78268 0.0142971
12419.2  0.0002045 0.783423 0.0143353
12563.2  0.000209848 0.787761 0.0141167
12708.8  0.000215541 0.793318 0.0138058
12856.1  0.000218131 0.798425 0.0135271
13005.1  0.00021725 0.803006 0.013289
13155.9  0.00021268 0.807002 0.0130956
13308.3  0.000212534 0.81369 0.0127249
13462.6  0.000213336 0.821303 0.0122844
13618.7  0.000211416 0.82841 0.0118728
13776.5  0.000206362 0.834959 0.0114966
13936.2  0.00019785 0.84091 0.0111591
14097.7  0.00019324 0.848659 0.010719
14261.1  0.000190146 0.856972 0.0102356
14426.4  0.00018499 0.864703 0.00977758
14593.7  0.00017736 0.871818 0.00934977
14762.8  0.000166891 0.878299 0.00895423
14933.9  0.000159684 0.885897 0.00851445
15107  0.000154343 0.893756 0.00805562
15282.1  0.000147659 0.900963 0.00761814
15459.3  0.000139258 0.907505 0.00720503
15638.5  0.000128785 0.913375 0.00681741
15819.7  0.000120876 0.919964 0.00642458
16003.1  0.000114899 0.926639 0.00603113
16188.6  0.000108202 0.932617 0.00565443
16376.2  0.000100468 0.937893 0.00529618
16566.1  9.13875e-05 0.942471 0.0049568
16758.1  8.41956e-05 0.947622 0.00463392
16952.3  7.87569e-05 0.952829 0.00432219
17148.8  7.30475e-05 0.957316 0.00402263
17347.6  6.68202e-05 0.96108 0.00373605
17548.7  5.9823e-05 0.964125 0.00346242
17752.1  5.4125e-05 0.967774 0.0032142
17957.8  4.98512e-05 0.971572 0.00298301
18166  4.55799e-05 0.97464 0.00275993
18376.6  4.11289e-05 0.976975 0.00254525
18589.6  3.63097e-05 0.978571 0.00233872
18805  3.23202e-05 0.980894 0.00215839
19023  2.9375e-05 0.98354 0.00199664
19243.5  2.65627e-05 0.985454 0.00183976
19466.6  2.37569e-05 0.986625 0.00168777
19692.2  2.08263e-05 0.987041 0.00154036
19920.5  1.83818e-05 0.988325 0.00141576
20151.4  1.66277e-05 0.990148 0.0013085
20384.9  1.50405e-05 0.991239 0.00120378
20621.2  1.35378e-05 0.991577 0.0011015
20860.2  1.2034e-05 0.991143 0.00100139
21102  1.0785e-05 0.991694 0.000919118
21346.6  9.94105e-06 0.993009 0.000851551
21594.1  9.24471e-06 0.993587 0.000784999
21844.4  8.64523e-06 0.993404 0.000719342
22097.6  8.0899e-06 0.992432 0.000654377
22353.7  7.64669e-06 0.992518 0.000602299
22612.8  7.40559e-06 0.993576 0.000561819
22874.9  7.27102e-06 0.993894 0.000521468
23140.1  7.21289e-06 0.993441 0.00048115
23408.3  7.20024e-06 0.992182 0.000440725
23679.6  7.21997e-06 0.992007 0.000409006
23954.1  7.31559e-06 0.992987 0.000385897
24231.7  7.47422e-06 0.993222 0.000362487
24512.6  7.67806e-06 0.992676 0.000338712
24796.7  7.90891e-06 0.991312 0.000314487
25084.2  8.13332e-06 0.991015 0.000295779
25374.9  8.36811e-06 0.992026 0.000283114
25669  8.62975e-06 0.992287 0.000270007
25966.6  8.90672e-06 0.99176 0.000256423
26267.5  9.18735e-06 0.990404 0.000242318
26572  9.44673e-06 0.990067 0.000231481
26880  9.69317e-06 0.991164 0.000224647
27191.6  9.94084e-06 0.991509 0.000217393
27506.8  1.01808e-05 0.991059 0.000209702
27825.6  1.04038e-05 0.989772 0.000201559
28148.1  1.06033e-05 0.989436 0.000195204
28474.4  1.0792e-05 0.990637 0.000191328
28804.4  1.09664e-05 0.991083 0.000187126
29138.3  1.11181e-05 0.990732 0.000182595
29476.1  1.12381e-05 0.989539 0.000177736
29817.7  1.13376e-05 0.989215 0.000173753
30163.3  1.14409e-05 0.990515 0.000171173
30513  1.15225e-05 0.991059 0.000168381
30866.6  1.15735e-05 0.990805 0.000165382
31224.4  1.15843e-05 0.989708 0.000162183
31586.4  1.15789e-05 0.98939 0.000159342
31952.5  1.15958e-05 0.990773 0.000157182
32322.8  1.15891e-05 0.9914 0.000154915
32697.5  1.15492e-05 0.99123 0.00015255
33076.5  1.14659e-05 0.990217 0.000150097
33459.9  1.13702e-05 0.989892 0.000147732
33847.7  1.13137e-05 0.991336 0.000145597
34240.1  1.12353e-05 0.992028 0.000143438
34636.9  1.11247e-05 0.991923 0.000141264
35038.4  1.09712e-05 0.990977 0.000139086
35444.6  1.0808e-05 0.990628 0.000136879
35855.4  1.06971e-05 0.992115 0.00013464
36271  1.05674e-05 0.992851 0.000132436
36691.4  1.04088e-05 0.992793 0.000130274
37116.7  1.02101e-05 0.991897 0.000128164
37546.9  1.00036e-05 0.991509 0.000125993
37982.2  9.85733e-06 0.993022 0.000123656
38422.4  9.69629e-06 0.993786 0.000121389
38867.8  9.51036e-06 0.99376 0.000119201
39318.3  9.2887e-06 0.992898 0.000117098
39774  9.05998e-06 0.992457 0.00011494
40235.1  8.89524e-06 0.993983 0.000112565
40701.4  8.71951e-06 0.994763 0.000110281
41173.2  8.52319e-06 0.994755 0.000108091
41650.4  8.29594e-06 0.993914 0.000106002
42133.2  8.06195e-06 0.99341 0.000103881
42621.6  7.89192e-06 0.99494 0.000101541
43115.6  7.71425e-06 0.995727 9.92974e-05
43615.4  7.52004e-06 0.995729 9.7154e-05
44120.9  7.29968e-06 0.9949 9.51139e-05
44632.3  7.07266e-06 0.994325 9.30656e-05
45149.7  6.90683e-06 0.995854 9.08244e-05
45673  6.73613e-06 0.996642 8.86767e-05
46202.4  6.55244e-06 0.996647 8.66256e-05
46738  6.34707e-06 0.995824 8.46729e-05
47279.7  6.13502e-06 0.995173 8.27324e-05
47827.7  5.97962e-06 0.996698 8.06363e-05
48382.1  5.82147e-06 0.997484 7.86262e-05
48942.9  5.65335e-06 0.997489 7.67039e-05
49510.2  5.4675e-06 0.996668 7.48705e-05
50084.1  5.27498e-06 0.995938 7.30639e-05
50664.6  5.13358e-06 0.997458 7.11418e-05
51251.9  4.99099e-06 0.99824 6.92953e-05
51845.9  4.84087e-06 0.998244 6.75258e-05
52446.9  4.67642e-06 0.997423 6.58336e-05
53054.8  4.50542e-06 0.996614 6.41766e-05
53669.8  4.37958e-06 0.998128 6.2442e-05
54291.9  4.25366e-06 0.998907 6.07719e-05
54921.2  4.12215e-06 0.998909 5.91671e-05
55557.8  3.97914e-06 0.998088 5.76275e-05
56201.7  3.82982e-06 0.997199 5.61268e-05
56853.2  3.71973e-06 0.998709 5.45813e-05
57512.2  3.61029e-06 0.999486 5.30896e-05
58178.8  3.49676e-06 0.999487 5.16518e-05
58853.2  3.37408e-06 0.998666 5.02678e-05
59535.3  3.2454e-06 0.997698 4.89225e-05
60225.4  3.15036e-06 0.999206 4.75596e-05
60923.5  3.05639e-06 0.999983 4.62403e-05
61629.7  2.95949e-06 0.999983 4.49649e-05
62344  2.85535e-06 0.999164 4.37329e-05
63066.7  2.7456e-06 0.998117 4.25369e-05
63797.7  2.66436e-06 0.999626 4.13445e-05
64537.2  2.58444e-06 1.0004 4.01871e-05
65285.2  2.50244e-06 1.00041 3.90645e-05
66041.9  2.41472e-06 0.999589 3.79763e-05
66807.4  2.32185e-06 0.998465 3.69202e-05
67581.8  2.25292e-06 0.999976 3.58835e-05
68365.2  2.18542e-06 1.00076 3.48743e-05
69157.6  2.11647e-06 1.00076 3.38923e-05
69959.2  2.04301e-06 0.99995 3.29372e-05
70770.1  1.96487e-06 0.998751 3.20093e-05
71590.4  1.9067e-06 1.00027 3.11122e-05
72420.2  1.84995e-06 1.00105 3.02364e-05
73259.7  1.79223e-06 1.00106 2.93815e-05
74108.8  1.73096e-06 1.00025 2.85472e-05
74967.8  1.66547e-06 0.998982 2.77352e-05
75836.8  1.61655e-06 1.0005 2.69617e-05
76715.8  1.56899e-06 1.00129 2.62042e-05
77605  1.52079e-06 1.00131 2.54627e-05
78504.6  1.4698e-06 1.00051 2.47367e-05
79414.5  1.41506e-06 0.999167 2.40282e-05
80335  1.37398e-06 1.00069 2.33627e-05
81266.2  1.33419e-06 1.00149 2.27093e-05
82208.2  1.29399e-06 1.00152 2.20677e-05
83161  1.25158e-06 1.00073 2.14376e-05
84125  1.20587e-06 0.999312 2.08209e-05
85100.1  1.1714e-06 1.00085 2.02493e-05
86086.5  1.1381e-06 1.00165 1.96865e-05
87084.3  1.10457e-06 1.00169 1.91324e-05
88093.7  1.0693e-06 1.00091 1.85866e-05
89114.8  1.03112e-06 0.999424 1.80504e-05
90147.8  1.00217e-06 1.00097 1.75598e-05
91192.7  9.74281e-07 1.00179 1.70756e-05
92249.7  9.46271e-07 1.00183 1.65975e-05
93319  9.16885e-07 1.00106 1.61253e-05
94400.6  8.84961e-07 0.999509 1.56595e-05
95494.9  8.60609e-07 1.00106 1.52386e-05
96601.7  8.37199e-07 1.00189 1.48221e-05
97721.5  8.13749e-07 1.00195 1.44099e-05
98854.2  7.89209e-07 1.00119 1.40017e-05
100000  7.62458e-07 0.999571 1.35972e-05
